#Temperature(K) Molarity of cu (x_m/Cu) in liquid Sn
# Source: http://www.metallurgy.nist.gov/phase/solder/cusn.html
  #Temperature(K) Molarity
   500.000000       1.65438615E-02
   501.000000       1.76213868E-02
   502.000000       1.86989103E-02
   503.000000       1.97764337E-02
   504.000000       2.08539590E-02
   505.000000       2.19314825E-02
   506.000000       2.30090059E-02
   507.000000       2.40865294E-02
   508.000000       2.51640528E-02
   509.000000       2.62415782E-02
   510.000000       2.73191016E-02
   511.000000       2.83966251E-02
   512.000000       2.94741504E-02
   513.000000       3.05516738E-02
   514.000000       3.16291973E-02
   515.000000       3.27067226E-02
   516.000000       3.37842479E-02
   517.000000       3.48617695E-02
   518.000000       3.59392911E-02
   519.000000       3.70168164E-02
   520.000000       3.80943418E-02
   521.000000       3.91718671E-02
   522.000000       4.02493887E-02
   523.000000       4.13269103E-02
   524.000000       4.24044356E-02
   525.000000       4.34819609E-02
   526.000000       4.45594862E-02
   527.000000       4.56370078E-02
   528.000000       4.67145331E-02
   529.000000       4.77920547E-02
   530.000000       4.88695800E-02
   531.000000       4.99471053E-02
   532.000000       5.10246307E-02
   533.000000       5.21021485E-02
   534.000000       5.31796739E-02
   535.000000       5.42571992E-02
   536.000000       5.53347245E-02
   537.000000       5.64122498E-02
   538.000000       5.74897751E-02
   539.000000       5.85672930E-02
   540.000000       5.96448183E-02
   541.000000       6.07223436E-02
   542.000000       6.17998689E-02
   543.000000       6.28773943E-02
   544.000000       6.39549121E-02
   545.000000       6.50324374E-02
   546.000000       6.61099628E-02
   547.000000       6.71874881E-02
   548.000000       6.82650134E-02
   549.000000       6.93425313E-02
   550.000000       7.04200566E-02
   551.000000       7.14975819E-02
   552.000000       7.25751072E-02
   553.000000       7.36526325E-02
   554.000000       7.47301579E-02
   555.000000       7.58076757E-02
   556.000000       7.68852010E-02
   557.000000       7.79627264E-02
   558.000000       7.90402517E-02
   559.000000       8.01177695E-02
   560.000000       8.11952949E-02
   561.000000       8.22728202E-02
   562.000000       8.33503455E-02
   563.000000       8.44278708E-02
   564.000000       8.55053887E-02
   565.000000       8.65829140E-02
   566.000000       8.76604393E-02
   567.000000       8.87379646E-02
   568.000000       8.98154899E-02
   569.000000       9.08930078E-02
   570.000000       9.19705331E-02
   571.000000       9.30480585E-02
   572.000000       9.41255838E-02
   573.000000       9.52031091E-02
   574.000000       9.62806344E-02
   575.000000       9.73581523E-02
   576.000000       9.84356776E-02
   577.000000       9.95132029E-02
   578.000000      0.100590728    
   579.000000      0.101668254    
   580.000000      0.102745771    
   581.000000      0.103823297    
   582.000000      0.104900822    
   583.000000      0.105978347    
   584.000000      0.107055873    
   585.000000      0.108133391    
   586.000000      0.109210916    
   587.000000      0.110288441    
   588.000000      0.111365966    
   589.000000      0.112443492    
   590.000000      0.113521017    
   591.000000      0.114598535    
   592.000000      0.115676060    
   593.000000      0.116753586    
   594.000000      0.117831111    
   595.000000      0.118908636    
   596.000000      0.119986154    
   597.000000      0.121063679    
   598.000000      0.122141205    
   599.000000      0.123218730    
   600.000000      0.124296255    
   601.000000      0.125373781    
   602.000000      0.126451299    
   603.000000      0.127528831    
   604.000000      0.128606349    
   605.000000      0.129683882    
   606.000000      0.130761400    
   607.000000      0.131838918    
   608.000000      0.132916451    
   609.000000      0.133993968    
   610.000000      0.135071501    
   611.000000      0.136149019    
   612.000000      0.137226537    
   613.000000      0.138304070    
   614.000000      0.139381588    
   615.000000      0.140459120    
   616.000000      0.141536638    
   617.000000      0.142614156    
   618.000000      0.143691689    
   619.000000      0.144769207    
   620.000000      0.145846725    
   621.000000      0.146924257    
   622.000000      0.148001775    
   623.000000      0.149079308    
   624.000000      0.150156826    
   625.000000      0.151234344    
   626.000000      0.152311876    
   627.000000      0.153389394    
   628.000000      0.154466927    
   629.000000      0.155544445    
   630.000000      0.156621978    
   631.000000      0.157699496    
   632.000000      0.158777013    
   633.000000      0.159854546    
   634.000000      0.160932064    
   635.000000      0.162009597    
   636.000000      0.163087115    
   637.000000      0.164164633    
   638.000000      0.165242165    
   639.000000      0.166319683    
   640.000000      0.167397216    
   641.000000      0.168474734    
   642.000000      0.169552252    
   643.000000      0.170629784    
   644.000000      0.171707302    
   645.000000      0.172784835    
   646.000000      0.173862353    
   647.000000      0.174939871    
   648.000000      0.176017404    
   649.000000      0.177094921    
   650.000000      0.178172454    
   651.000000      0.179249972    
   652.000000      0.180327490    
   653.000000      0.181405023    
   654.000000      0.182482541    
   655.000000      0.183560073    
   656.000000      0.184637591    
   657.000000      0.185715109    
   658.000000      0.186792642    
   659.000000      0.187870160    
   660.000000      0.188947693    
   661.000000      0.190025210    
   662.000000      0.191102743    
   663.000000      0.192180261    
   664.000000      0.193257779    
   665.000000      0.194335312    
   666.000000      0.195412830    
   667.000000      0.196490362    
   668.000000      0.197567880    
   669.000000      0.198645398    
   670.000000      0.199722931    
   671.000000      0.200800449    
   672.000000      0.201877981    
   673.000000      0.202955499    
   674.000000      0.204033017    
   675.000000      0.205110550    
   676.000000      0.206188068    
   677.000000      0.207265601    
   678.000000      0.208343118    
   679.000000      0.209420636    
   680.000000      0.210498169    
   681.000000      0.211575687    
   682.000000      0.212653220    
   683.000000      0.213730738    
   684.000000      0.214808255    
   685.000000      0.215885788    
   686.000000      0.216963306    
   687.000000      0.218040839    
   688.000000      0.219118357    
   689.000000      0.220195875    
   690.000000      0.221273407    
   691.000000      0.222350925    
   692.000000      0.223428458    
   693.000000      0.224505976    
   694.000000      0.225583509    
   695.000000      0.226661026    
   696.000000      0.227738544    
   697.000000      0.228816077    
   698.000000      0.229893595    
   699.000000      0.230971128    
   700.000000      0.232048646    
   701.000000      0.233126163    
   702.000000      0.234203696    
   703.000000      0.235281214    
   704.000000      0.236358747    
   705.000000      0.237436265    
   706.000000      0.238513783    
   707.000000      0.239591315    
   708.000000      0.240668833    
